Bruker AXS Microanalysis GmbH Berlin, Germany
Esprit 1.8

Date: 05.07.2011 12:42:06
Real time: 23552
Life time: 20248
Pulse density: 70097


Detector type: XFLASH
Window type: 
Detector thickness: 0.45
Si dead layer:0

Calibration, lin.: 5.002
Calibration, abs.: -482.098
Mn FWHM: 141.704
Fano factor: 0.107
Channels: 4098

Energy Counts
-0.4821     0
-0.4771     0
-0.4721     0
-0.4671     0
-0.4621     0
-0.4571     0
-0.4521     0
-0.4471     0
-0.4421     0
-0.4371     0
-0.4321     0
-0.4271     0
-0.4221     0
-0.4171     0
-0.4121     0
-0.4071     0
-0.4021     0
-0.3971     0
-0.3921     0
-0.3871     0
-0.3821     0
-0.3771     0
-0.3721     0
-0.3671     0
-0.3621     0
-0.3571     0
-0.3521     0
-0.3471     0
-0.3421     0
-0.3371     0
-0.3321     0
 -0.327     0
 -0.322     0
 -0.317     0
 -0.312     0
 -0.307     0
 -0.302     0
 -0.297     0
 -0.292     0
 -0.287     0
 -0.282     0
 -0.277     0
 -0.272     0
 -0.267     0
 -0.262     0
 -0.257     0
 -0.252     0
 -0.247     0
 -0.242     0
 -0.237     0
 -0.232     0
 -0.227     0
 -0.222     0
 -0.217     0
 -0.212     0
 -0.207     0
 -0.202     0
 -0.197     0
 -0.192     0
 -0.187     0
 -0.182     0
 -0.177     0
 -0.172     0
 -0.167     0
 -0.162     0
 -0.157     1
 -0.152     1
 -0.147     1
 -0.142     1
 -0.137     4
 -0.132     7
 -0.127    11
 -0.122    22
 -0.117    38
 -0.112    66
 -0.107    90
 -0.102   126
 -0.097   202
 -0.092   309
 -0.087   454
 -0.082   661
 -0.077   961
 -0.072  1314
 -0.067  1783
 -0.062  2358
 -0.057  3047
 -0.052  3850
 -0.047  4657
 -0.042  5660
 -0.037  6838
 -0.032  7795
 -0.027  8749
 -0.022  9733
 -0.017 10490
 -0.012 11155
 -0.007 11467
-0.0019 11531
 0.0031 11338
 0.0081 10883
 0.0131 10280
 0.0181  9649
 0.0231  8818
 0.0281  7685
 0.0331  6534
 0.0381  5579
 0.0431  4675
 0.0481  3846
 0.0531  3004
 0.0581  2332
 0.0631  1832
 0.0681  1374
 0.0731  1025
 0.0781   723
 0.0831   511
 0.0881   356
 0.0931   252
 0.0981   181
 0.1031   126
 0.1081    89
 0.1131    64
 0.1181    46
 0.1231    24
 0.1281    17
 0.1331    16
 0.1381     6
 0.1431     3
 0.1481     2
 0.1531     4
 0.1581     4
 0.1631     3
 0.1681     2
 0.1731     1
 0.1781     2
 0.1831     2
 0.1881     0
 0.1931     1
 0.1981     1
 0.2031     0
 0.2081     0
 0.2131     0
 0.2181     1
 0.2231     0
 0.2281     0
 0.2331     0
 0.2381     0
 0.2431     0
 0.2481     0
 0.2531     0
 0.2581     0
 0.2631     0
 0.2681     0
 0.2731     0
 0.2781     0
 0.2831     0
 0.2881     0
 0.2931     0
 0.2981     0
 0.3031     0
 0.3081     0
 0.3131     0
 0.3182     0
 0.3232     0
 0.3282     0
 0.3332     0
 0.3382     0
 0.3432     0
 0.3482     4
 0.3532    34
 0.3582    47
 0.3632    55
 0.3682    57
 0.3732    61
 0.3782    54
 0.3832    45
 0.3882    39
 0.3932    36
 0.3982    36
 0.4032    36
 0.4082    49
 0.4132    52
 0.4182    46
 0.4232    46
 0.4282    51
 0.4332    54
 0.4382    64
 0.4432    47
 0.4482    30
 0.4532    23
 0.4582    26
 0.4632    33
 0.4682    32
 0.4732    28
 0.4782    28
 0.4832    30
 0.4882    33
 0.4932    38
 0.4982    31
 0.5032    24
 0.5082    26
 0.5132    28
 0.5182    26
 0.5232    32
 0.5282    34
 0.5332    29
 0.5382    46
 0.5432    37
 0.5482    28
 0.5532    27
 0.5582    22
 0.5632    24
 0.5682    34
 0.5732    47
 0.5782    33
 0.5832    31
 0.5882    29
 0.5932    18
 0.5982    21
 0.6032    16
 0.6082    22
 0.6132    20
 0.6182    13
 0.6232    20
 0.6282    22
 0.6332    14
 0.6383    19
 0.6433    27
 0.6483    21
 0.6533    20
 0.6583    24
 0.6633    18
 0.6683     6
 0.6733    15
 0.6783    18
 0.6833    28
 0.6883    27
 0.6933    24
 0.6983    23
 0.7033    15
 0.7083    11
 0.7133    20
 0.7183    16
 0.7233    11
 0.7283    10
 0.7333    10
 0.7383    14
 0.7433    15
 0.7483    16
 0.7533     6
 0.7583    16
 0.7633    16
 0.7683    15
 0.7733    11
 0.7783     5
 0.7833    15
 0.7883    18
 0.7933    12
 0.7983    10
 0.8033    13
 0.8083     7
 0.8133    11
 0.8183     9
 0.8233    13
 0.8283     3
 0.8333    11
 0.8383    19
 0.8433     8
 0.8483     4
 0.8533    24
 0.8583    13
 0.8633     3
 0.8683    17
 0.8733    26
 0.8783     9
 0.8833    14
 0.8883     8
 0.8933     6
 0.8983     6
 0.9033    11
 0.9083    14
 0.9133     7
 0.9183     7
 0.9233    17
 0.9283     7
 0.9333     9
 0.9383     9
 0.9433    12
 0.9483    12
 0.9533     2
 0.9584     5
 0.9634     3
 0.9684     5
 0.9734     6
 0.9784     0
 0.9834     6
 0.9884    10
 0.9934    12
 0.9984    15
 1.0034     7
 1.0084     8
 1.0134    22
 1.0184    17
 1.0234     4
 1.0284     4
 1.0334     1
 1.0384     1
 1.0434    12
 1.0484    19
 1.0534    10
 1.0584    10
 1.0634    13
 1.0684     8
 1.0734    15
 1.0784     3
 1.0834    10
 1.0884     9
 1.0934     1
 1.0984     0
 1.1034     0
 1.1084     3
 1.1134     7
 1.1184     1
 1.1234     2
 1.1284     0
 1.1334     3
 1.1384     3
 1.1434     2
 1.1484     3
 1.1534     6
 1.1584     7
 1.1634     0
 1.1684     0
 1.1734     0
 1.1784     0
 1.1834     0
 1.1884     6
 1.1934     4
 1.1984     2
 1.2034     0
 1.2084     7
 1.2134    10
 1.2184    13
 1.2234     0
 1.2284     5
 1.2334    12
 1.2384     4
 1.2434     5
 1.2484    18
 1.2534    19
 1.2584    10
 1.2634    12
 1.2684    23
 1.2734    34
 1.2785    32
 1.2835    34
 1.2885    31
 1.2935    31
 1.2985    31
 1.3035    18
 1.3085    28
 1.3135    26
 1.3185    27
 1.3235    23
 1.3285    42
 1.3335    45
 1.3385    40
 1.3435    34
 1.3485    40
 1.3535    43
 1.3585    50
 1.3635    57
 1.3685    54
 1.3735    58
 1.3785    54
 1.3835    57
 1.3885    55
 1.3935    46
 1.3985    42
 1.4035    46
 1.4085    56
 1.4135    45
 1.4185    54
 1.4235    43
 1.4285    48
 1.4335    65
 1.4385    50
 1.4435    40
 1.4485    46
 1.4535    20
 1.4585    22
 1.4635    30
 1.4685    32
 1.4735    37
 1.4785    43
 1.4835    14
 1.4885    11
 1.4935    14
 1.4985    13
 1.5035    13
 1.5085    10
 1.5135     4
 1.5185    11
 1.5235    10
 1.5285     4
 1.5335     4
 1.5385     2
 1.5435     2
 1.5485     5
 1.5535     6
 1.5585     2
 1.5635     4
 1.5685     0
 1.5735     0
 1.5785     7
 1.5835     2
 1.5885     0
 1.5935     1
 1.5985     1
 1.6036     0
 1.6086     0
 1.6136     0
 1.6186     5
 1.6236     2
 1.6286    10
 1.6336     0
 1.6386     0
 1.6436     0
 1.6486     4
 1.6536    13
 1.6586    11
 1.6636     9
 1.6686     5
 1.6736    23
 1.6786    35
 1.6836    44
 1.6886    35
 1.6936    37
 1.6986    36
 1.7036    69
 1.7086    60
 1.7136    70
 1.7186    73
 1.7236    89
 1.7286   113
 1.7336   112
 1.7386   106
 1.7436   124
 1.7486   139
 1.7536   145
 1.7586   136
 1.7636   127
 1.7686   129
 1.7736   115
 1.7786   116
 1.7836   129
 1.7886   131
 1.7936   152
 1.7986   148
 1.8036   150
 1.8086   154
 1.8136   143
 1.8186   134
 1.8236   165
 1.8286   160
 1.8336   154
 1.8386   149
 1.8436   147
 1.8486   137
 1.8536   145
 1.8586   134
 1.8636   136
 1.8686   150
 1.8736   128
 1.8786   121
 1.8836    99
 1.8886    93
 1.8936    93
 1.8986    86
 1.9036    78
 1.9086    77
 1.9136    65
 1.9186    63
 1.9237    66
 1.9287    57
 1.9337    46
 1.9387    33
 1.9437    41
 1.9487    30
 1.9537    25
 1.9587    39
 1.9637    37
 1.9687    31
 1.9737    23
 1.9787    20
 1.9837    16
 1.9887     7
 1.9937    13
 1.9987     8
 2.0037    23
 2.0087    11
 2.0137     9
 2.0187    17
 2.0237    24
 2.0287    12
 2.0337     0
 2.0387     3
 2.0437     7
 2.0487     2
 2.0537     3
 2.0587     2
 2.0637     0
 2.0687     0
 2.0737    13
 2.0787     0
 2.0837     0
 2.0887     0
 2.0937     4
 2.0987     2
 2.1037     0
 2.1087     6
 2.1137     8
 2.1187     0
 2.1237     0
 2.1287     0
 2.1337     0
 2.1387     0
 2.1437     0
 2.1487     0
 2.1537    12
 2.1587     7
 2.1637     7
 2.1687     1
 2.1737     0
 2.1787     0
 2.1837    16
 2.1887    27
 2.1937    20
 2.1987    31
 2.2037    46
 2.2087    39
 2.2137    58
 2.2187    60
 2.2237    72
 2.2287    97
 2.2337   106
 2.2387   129
 2.2438   144
 2.2488   165
 2.2538   186
 2.2588   208
 2.2638   207
 2.2688   244
 2.2738   257
 2.2788   255
 2.2838   273
 2.2888   292
 2.2938   320
 2.2988   331
 2.3038   330
 2.3088   331
 2.3138   343
 2.3188   363
 2.3238   397
 2.3288   415
 2.3338   412
 2.3388   399
 2.3438   413
 2.3488   409
 2.3538   436
 2.3588   410
 2.3638   441
 2.3688   431
 2.3738   402
 2.3788   424
 2.3838   437
 2.3888   430
 2.3938   428
 2.3988   412
 2.4038   409
 2.4088   387
 2.4138   347
 2.4188   346
 2.4238   333
 2.4288   324
 2.4338   320
 2.4388   295
 2.4438   290
 2.4488   274
 2.4538   266
 2.4588   249
 2.4638   225
 2.4688   218
 2.4738   191
 2.4788   186
 2.4838   185
 2.4888   200
 2.4938   209
 2.4988   153
 2.5038   154
 2.5088   160
 2.5138   157
 2.5188   155
 2.5238   163
 2.5288   142
 2.5338   129
 2.5388   155
 2.5438   184
 2.5488   186
 2.5538   200
 2.5588   225
 2.5639   257
 2.5689   252
 2.5739   283
 2.5789   327
 2.5839   324
 2.5889   338
 2.5939   396
 2.5989   436
 2.6039   477
 2.6089   473
 2.6139   457
 2.6189   496
 2.6239   479
 2.6289   456
 2.6339   460
 2.6389   444
 2.6439   485
 2.6489   459
 2.6539   401
 2.6589   400
 2.6639   370
 2.6689   337
 2.6739   320
 2.6789   278
 2.6839   229
 2.6889   222
 2.6939   205
 2.6989   168
 2.7039   161
 2.7089   134
 2.7139   111
 2.7189    88
 2.7239    80
 2.7289    60
 2.7339    54
 2.7389    71
 2.7439    58
 2.7489    51
 2.7539    61
 2.7589    52
 2.7639    51
 2.7689    35
 2.7739    34
 2.7789    50
 2.7839    62
 2.7889    50
 2.7939    56
 2.7989    62
 2.8039    44
 2.8089    50
 2.8139    51
 2.8189    43
 2.8239    54
 2.8289    58
 2.8339    56
 2.8389    48
 2.8439    51
 2.8489    34
 2.8539    40
 2.8589    52
 2.8639    41
 2.8689    42
 2.8739    32
 2.8789    31
  2.884    28
  2.889    28
  2.894    35
  2.899    28
  2.904    15
  2.909    20
  2.914    20
  2.919    11
  2.924    11
  2.929     7
  2.934    17
  2.939    30
  2.944    20
  2.949    14
  2.954    24
  2.959     5
  2.964    11
  2.969    18
  2.974    20
  2.979     6
  2.984     4
  2.989     8
  2.994    14
  2.999    19
  3.004    34
  3.009    20
  3.014    20
  3.019     5
  3.024    22
  3.029    23
  3.034    24
  3.039    23
  3.044    24
  3.049    26
  3.054    25
  3.059    37
  3.064    34
  3.069    39
  3.074    38
  3.079    50
  3.084    58
  3.089    46
  3.094    55
  3.099    51
  3.104    60
  3.109    66
  3.114    67
  3.119    83
  3.124    97
  3.129   102
  3.134    89
  3.139    87
  3.144   100
  3.149    95
  3.154    97
  3.159    86
  3.164    56
  3.169    77
  3.174    72
  3.179    56
  3.184    48
  3.189    57
  3.194    56
  3.199    61
  3.204    53
 3.2091    51
 3.2141    37
 3.2191    30
 3.2241    39
 3.2291    25
 3.2341    30
 3.2391    16
 3.2441    27
 3.2491    39
 3.2541    44
 3.2591    31
 3.2641    24
 3.2691    27
 3.2741    25
 3.2791    20
 3.2841    29
 3.2891    30
 3.2941    46
 3.2991    54
 3.3041    53
 3.3091    48
 3.3141    43
 3.3191    52
 3.3241    42
 3.3291    38
 3.3341    51
 3.3391    48
 3.3441    50
 3.3491    56
 3.3541    41
 3.3591    47
 3.3641    41
 3.3691    21
 3.3741    35
 3.3791    38
 3.3841    39
 3.3891    42
 3.3941    31
 3.3991    30
 3.4041    20
 3.4091    29
 3.4141    32
 3.4191    32
 3.4241    32
 3.4291    27
 3.4341    26
 3.4391    17
 3.4441    20
 3.4491    17
 3.4541    19
 3.4591    27
 3.4641    17
 3.4691    14
 3.4741    21
 3.4791    28
 3.4841    31
 3.4891    22
 3.4941    24
 3.4991    18
 3.5041    21
 3.5091    32
 3.5141    32
 3.5191    39
 3.5241    41
 3.5292    43
 3.5342    48
 3.5392    63
 3.5442    80
 3.5492    75
 3.5542    84
 3.5592   127
 3.5642   143
 3.5692   131
 3.5742   153
 3.5792   154
 3.5842   158
 3.5892   197
 3.5942   201
 3.5992   225
 3.6042   216
 3.6092   219
 3.6142   274
 3.6192   256
 3.6242   277
 3.6292   290
 3.6342   315
 3.6392   336
 3.6442   335
 3.6492   345
 3.6542   354
 3.6592   389
 3.6642   415
 3.6692   377
 3.6742   411
 3.6792   400
 3.6842   396
 3.6892   402
 3.6942   415
 3.6992   414
 3.7042   404
 3.7092   379
 3.7142   405
 3.7192   374
 3.7242   345
 3.7292   323
 3.7342   322
 3.7392   293
 3.7442   263
 3.7492   233
 3.7542   230
 3.7592   238
 3.7642   185
 3.7692   156
 3.7742   149
 3.7792   144
 3.7842   136
 3.7892   106
 3.7942    98
 3.7992   115
 3.8042   102
 3.8092   103
 3.8142    99
 3.8192    90
 3.8242   113
 3.8292   106
 3.8342    99
 3.8392   105
 3.8442   109
 3.8493   119
 3.8543   111
 3.8593   114
 3.8643   104
 3.8693   115
 3.8743    94
 3.8793    98
 3.8843   115
 3.8893   111
 3.8943    99
 3.8993    93
 3.9043    99
 3.9093    98
 3.9143    99
 3.9193   107
 3.9243   102
 3.9293   118
 3.9343   118
 3.9393   105
 3.9443    89
 3.9493    93
 3.9543    87
 3.9593    98
 3.9643    76
 3.9693    82
 3.9743    83
 3.9793    79
 3.9843    74
 3.9893    80
 3.9943    82
 3.9993    76
 4.0043    69
 4.0093    66
 4.0143    69
 4.0193    72
 4.0243    69
 4.0293    72
 4.0343    74
 4.0393    62
 4.0443    50
 4.0493    55
 4.0543    50
 4.0593    47
 4.0643    41
 4.0693    36
 4.0743    34
 4.0793    42
 4.0843    35
 4.0893    33
 4.0943    31
 4.0993    36
 4.1043    29
 4.1093    25
 4.1143    21
 4.1193    17
 4.1243    28
 4.1293    19
 4.1343    22
 4.1393    21
 4.1443     6
 4.1493     7
 4.1543    13
 4.1593    11
 4.1643    10
 4.1694     8
 4.1744     7
 4.1794    11
 4.1844     5
 4.1894     7
 4.1944     3
 4.1994     1
 4.2044     4
 4.2094     6
 4.2144     1
 4.2194     0
 4.2244     0
 4.2294     0
 4.2344     3
 4.2394     0
 4.2444     1
 4.2494     0
 4.2544     0
 4.2594     2
 4.2644     5
 4.2694     0
 4.2744     0
 4.2794     0
 4.2844     2
 4.2894     0
 4.2944     0
 4.2994     6
 4.3044     1
 4.3094     0
 4.3144     1
 4.3194     5
 4.3244    11
 4.3294     7
 4.3344     9
 4.3394     8
 4.3444    21
 4.3494    15
 4.3544    13
 4.3594    23
 4.3644    25
 4.3694    29
 4.3744    40
 4.3794    44
 4.3844    67
 4.3894    67
 4.3944    70
 4.3994    74
 4.4044    89
 4.4094   116
 4.4144   154
 4.4194   179
 4.4244   206
 4.4294   226
 4.4344   228
 4.4394   274
 4.4444   323
 4.4494   381
 4.4544   441
 4.4594   453
 4.4644   491
 4.4694   518
 4.4744   584
 4.4794   581
 4.4844   585
 4.4895   583
 4.4945   631
 4.4995   674
 4.5045   675
 4.5095   638
 4.5145   645
 4.5195   663
 4.5245   654
 4.5295   647
 4.5345   619
 4.5395   622
 4.5445   596
 4.5495   509
 4.5545   496
 4.5595   529
 4.5645   470
 4.5695   424
 4.5745   372
 4.5795   336
 4.5845   295
 4.5895   270
 4.5945   234
 4.5995   229
 4.6045   184
 4.6095   165
 4.6145   124
 4.6195    95
 4.6245    92
 4.6295    86
 4.6345    82
 4.6395    53
 4.6445    44
 4.6495    43
 4.6545    37
 4.6595    23
 4.6645     8
 4.6695    10
 4.6745    16
 4.6795    11
 4.6845     6
 4.6895     4
 4.6945     3
 4.6995    10
 4.7045     0
 4.7095     0
 4.7145     0
 4.7195     0
 4.7245     0
 4.7295     1
 4.7345     3
 4.7395     0
 4.7445     0
 4.7495     0
 4.7545     0
 4.7595     0
 4.7645    15
 4.7695    15
 4.7745     7
 4.7795    17
 4.7845     5
 4.7895    17
 4.7945    24
 4.7995    23
 4.8045    26
 4.8095    37
 4.8146    66
 4.8196    68
 4.8246    85
 4.8296    96
 4.8346   114
 4.8396   125
 4.8446   146
 4.8496   170
 4.8546   193
 4.8596   242
 4.8646   263
 4.8696   306
 4.8746   370
 4.8796   425
 4.8846   454
 4.8896   473
 4.8946   530
 4.8996   607
 4.9046   661
 4.9096   660
 4.9146   642
 4.9196   738
 4.9246   806
 4.9296   798
 4.9346   792
 4.9396   825
 4.9446   845
 4.9496   840
 4.9546   888
 4.9596   870
 4.9646   829
 4.9696   821
 4.9746   819
 4.9796   824
 4.9846   757
 4.9896   728
 4.9946   663
 4.9996   591
 5.0046   545
 5.0096   534
 5.0146   460
 5.0196   420
 5.0246   385
 5.0296   351
 5.0346   327
 5.0396   282
 5.0446   250
 5.0496   225
 5.0546   196
 5.0596   168
 5.0646   135
 5.0696   128
 5.0746   108
 5.0796    82
 5.0846    60
 5.0896    51
 5.0946    50
 5.0996    40
 5.1046    19
 5.1096     7
 5.1146     6
 5.1196     6
 5.1246     7
 5.1296     3
 5.1347     9
 5.1397    12
 5.1447     8
 5.1497     7
 5.1547     8
 5.1597     4
 5.1647     0
 5.1697     0
 5.1747     0
 5.1797     7
 5.1847     9
 5.1897     0
 5.1947     0
 5.1997     1
 5.2047     5
 5.2097     4
 5.2147     9
 5.2197    16
 5.2247    12
 5.2297     8
 5.2347    17
 5.2397    22
 5.2447    26
 5.2497    25
 5.2547    22
 5.2597    27
 5.2647    39
 5.2697    52
 5.2747    66
 5.2797    74
 5.2847    95
 5.2897   120
 5.2947   128
 5.2997   140
 5.3047   178
 5.3097   210
 5.3147   251
 5.3197   298
 5.3247   334
 5.3297   363
 5.3347   397
 5.3397   467
 5.3447   541
 5.3497   600
 5.3547   643
 5.3597   681
 5.3647   729
 5.3697   739
 5.3747   850
 5.3797   920
 5.3847   962
 5.3897   974
 5.3947  1032
 5.3997  1074
 5.4047  1070
 5.4097  1092
 5.4147  1113
 5.4197  1089
 5.4247  1074
 5.4297  1123
 5.4347  1087
 5.4397  1038
 5.4447   979
 5.4497   927
 5.4548   872
 5.4598   815
 5.4648   782
 5.4698   758
 5.4748   694
 5.4798   608
 5.4848   575
 5.4898   549
 5.4948   486
 5.4998   398
 5.5048   361
 5.5098   329
 5.5148   300
 5.5198   262
 5.5248   225
 5.5298   180
 5.5348   146
 5.5398   125
 5.5448   116
 5.5498   106
 5.5548    82
 5.5598    61
 5.5648    47
 5.5698    37
 5.5748    41
 5.5798    36
 5.5848    17
 5.5898    12
 5.5948    26
 5.5998    21
 5.6048    11
 5.6098    11
 5.6148     2
 5.6198     0
 5.6248     0
 5.6298     4
 5.6348     0
 5.6398     0
 5.6448     3
 5.6498     2
 5.6548     0
 5.6598     2
 5.6648     4
 5.6698     4
 5.6748     8
 5.6798     5
 5.6848     1
 5.6898     4
 5.6948     6
 5.6998    11
 5.7048     6
 5.7098     8
 5.7148    15
 5.7198    21
 5.7248    27
 5.7298    23
 5.7348    23
 5.7398    44
 5.7448    46
 5.7498    50
 5.7548    95
 5.7598   110
 5.7648   119
 5.7698   121
 5.7749   129
 5.7799   158
 5.7849   181
 5.7899   248
 5.7949   290
 5.7999   327
 5.8049   356
 5.8099   391
 5.8149   445
 5.8199   508
 5.8249   575
 5.8299   620
 5.8349   682
 5.8399   728
 5.8449   767
 5.8499   839
 5.8549   931
 5.8599   949
 5.8649   962
 5.8699  1062
 5.8749  1133
 5.8799  1137
 5.8849  1168
 5.8899  1192
 5.8949  1202
 5.8999  1191
 5.9049  1229
 5.9099  1220
 5.9149  1175
 5.9199  1153
 5.9249  1128
 5.9299  1081
 5.9349  1037
 5.9399  1016
 5.9449   950
 5.9499   910
 5.9549   829
 5.9599   759
 5.9649   777
 5.9699   735
 5.9749   646
 5.9799   593
 5.9849   530
 5.9899   473
 5.9949   406
 5.9999   359
 6.0049   309
 6.0099   274
 6.0149   263
 6.0199   238
 6.0249   203
 6.0299   155
 6.0349   135
 6.0399   125
 6.0449    94
 6.0499    74
 6.0549    77
 6.0599    69
